Wavelength (nm);Absorbance Solution;Transmittance Solution
341.676;0.000;100.000
342.058;0.000;100.000
342.440;0.092;80.900
342.822;0.092;80.900
343.204;0.029;93.577
343.586;0.049;89.382
343.968;0.052;88.625
344.350;0.074;84.333
344.732;0.241;57.357
345.114;0.805;15.667
345.495;0.370;42.643
345.877;0.000;100.000
346.259;0.000;100.000
346.640;0.000;100.000
347.022;0.000;100.000
347.403;0.000;100.000
347.785;0.000;100.000
348.166;0.000;100.000
348.548;0.000;100.000
348.929;0.000;100.000
349.311;0.040;91.200
349.692;0.000;100.000
350.073;0.000;100.000
350.454;0.000;100.000
350.836;0.000;100.000
351.217;0.000;100.000
351.598;0.000;100.000
351.979;0.000;100.000
352.360;0.000;100.000
352.741;0.000;100.000
353.122;0.000;100.000
353.503;0.000;100.000
353.884;0.000;100.000
354.265;0.067;85.654
354.645;0.074;84.333
355.026;0.100;79.429
355.407;0.401;39.700
355.787;3.000;0.100
356.168;0.220;60.300
356.549;0.142;72.071
356.929;3.000;0.100
357.310;3.000;0.100
357.690;0.000;100.000
358.071;0.121;75.750
358.451;0.000;100.000
358.831;0.000;100.000
359.212;0.000;100.000
359.592;0.000;100.000
359.972;0.000;100.000
360.352;0.000;100.000
360.732;0.000;100.000
361.113;0.062;86.786
361.493;0.121;75.750
361.873;0.000;100.000
362.253;0.000;100.000
362.632;0.000;100.000
363.012;0.092;80.900
363.392;0.000;100.000
363.772;0.000;100.000
364.152;0.000;100.000
364.532;0.045;90.056
364.911;0.301;50.000
365.291;0.615;24.250
365.670;0.202;62.875
366.050;0.202;62.875
366.430;0.301;50.000
366.809;0.000;100.000
367.188;3.000;0.100
367.568;0.000;100.000
367.947;0.000;100.000
368.327;0.000;100.000
368.706;0.000;100.000
369.085;0.000;100.000
369.464;0.000;100.000
369.843;0.000;100.000
370.223;0.000;100.000
370.602;0.000;100.000
370.981;0.000;100.000
371.360;0.000;100.000
371.739;0.000;100.000
372.118;0.000;100.000
372.496;0.000;100.000
372.875;0.000;100.000
373.254;0.052;88.625
373.633;0.301;50.000
374.011;0.040;91.200
374.390;0.000;100.000
374.769;0.000;100.000
375.147;0.040;91.200
375.526;0.000;100.000
375.904;0.000;100.000
376.283;0.062;86.786
376.661;0.142;72.071
377.040;0.062;86.786
377.418;0.241;57.357
377.796;0.142;72.071
378.175;0.062;86.786
378.553;0.000;100.000
378.931;0.000;100.000
379.309;0.000;100.000
379.687;0.000;100.000
380.065;0.173;67.167
380.443;0.173;67.167
380.821;0.134;73.409
381.199;0.121;75.750
381.577;0.000;100.000
381.955;3.000;0.100
382.333;0.000;100.000
382.710;0.000;100.000
383.088;0.000;100.000
383.466;0.220;60.300
383.843;0.301;50.000
384.221;0.354;44.278
384.599;0.220;60.300
384.976;0.000;100.000
385.353;0.000;100.000
385.731;0.000;100.000
386.108;0.062;86.786
386.486;0.220;60.300
386.863;0.337;46.038
387.240;1.056;8.800
387.617;0.452;35.286
387.995;0.520;30.192
388.372;0.879;13.214
388.749;0.142;72.071
389.126;0.052;88.625
389.503;3.000;0.100
389.880;0.000;100.000
390.257;0.000;100.000
390.634;0.000;100.000
391.011;0.121;75.750
391.387;0.142;72.071
391.764;0.082;82.773
392.141;0.000;100.000
392.518;0.000;100.000
392.894;0.000;100.000
393.271;0.000;100.000
393.647;0.000;100.000
394.024;0.000;100.000
394.400;0.000;100.000
394.777;0.062;86.786
395.153;0.000;100.000
395.530;0.301;50.000
395.906;3.000;0.100
396.282;0.000;100.000
396.658;0.040;91.200
397.034;0.000;100.000
397.411;0.000;100.000
397.787;3.000;0.100
398.163;3.000;0.100
398.539;0.000;100.000
398.915;0.000;100.000
399.291;0.000;100.000
399.667;0.000;100.000
400.042;0.000;100.000
400.418;0.000;100.000
400.794;0.000;100.000
401.170;0.000;100.000
401.545;0.000;100.000
401.921;0.000;100.000
402.297;0.000;100.000
402.672;0.000;100.000
403.048;0.000;100.000
403.423;0.484;32.833
403.799;0.615;24.250
404.174;3.000;0.100
404.549;3.000;0.100
404.925;3.000;0.100
405.300;3.000;0.100
405.675;0.000;100.000
406.050;0.000;100.000
406.426;3.000;0.100
406.801;3.000;0.100
407.176;3.000;0.100
407.551;0.000;100.000
407.926;3.000;0.100
408.301;3.000;0.100
408.676;0.000;100.000
409.050;3.000;0.100
409.425;3.000;0.100
409.800;3.000;0.100
410.175;3.000;0.100
410.549;3.000;0.100
410.924;3.000;0.100
411.299;3.000;0.100
411.673;3.000;0.100
412.048;3.000;0.100
412.422;3.000;0.100
412.797;0.000;100.000
413.171;0.000;100.000
413.545;0.000;100.000
413.920;3.000;0.100
414.294;3.000;0.100
414.668;3.000;0.100
415.042;3.000;0.100
415.416;0.000;100.000
415.790;0.000;100.000
416.164;0.000;100.000
416.538;3.000;0.100
416.912;3.000;0.100
417.286;3.000;0.100
417.660;3.000;0.100
418.034;3.000;0.100
418.408;3.000;0.100
418.782;3.000;0.100
419.155;3.000;0.100
419.529;3.000;0.100
419.903;3.000;0.100
420.276;3.000;0.100
420.650;3.000;0.100
421.023;3.000;0.100
421.397;3.000;0.100
421.770;3.000;0.100
422.144;3.000;0.100
422.517;3.000;0.100
422.890;3.000;0.100
423.263;3.000;0.100
423.637;3.000;0.100
424.010;3.000;0.100
424.383;3.000;0.100
424.756;3.000;0.100
425.129;3.000;0.100
425.502;3.000;0.100
425.875;0.000;100.000
426.248;3.000;0.100
426.621;3.000;0.100
426.994;3.000;0.100
427.366;3.000;0.100
427.739;3.000;0.100
428.112;3.000;0.100
428.484;3.000;0.100
428.857;3.000;0.100
429.230;3.000;0.100
429.602;3.000;0.100
429.975;3.000;0.100
430.347;3.000;0.100
430.719;3.000;0.100
431.092;3.000;0.100
431.464;3.000;0.100
431.836;3.000;0.100
432.209;3.000;0.100
432.581;3.000;0.100
432.953;3.000;0.100
433.325;3.000;0.100
433.697;3.000;0.100
434.069;3.000;0.100
434.441;3.000;0.100
434.813;3.000;0.100
435.185;3.000;0.100
435.557;3.000;0.100
435.929;3.000;0.100
436.300;1.917;1.211
436.672;3.000;0.100
437.044;3.000;0.100
437.415;3.000;0.100
437.787;3.000;0.100
438.159;3.000;0.100
438.530;3.000;0.100
438.902;3.000;0.100
439.273;3.000;0.100
439.644;3.000;0.100
440.016;3.000;0.100
440.387;3.000;0.100
440.758;3.000;0.100
441.129;3.000;0.100
441.501;3.000;0.100
441.872;3.000;0.100
442.243;3.000;0.100
442.614;3.000;0.100
442.985;3.000;0.100
443.356;3.000;0.100
443.727;3.000;0.100
444.098;3.000;0.100
444.468;1.497;3.182
444.839;3.000;0.100
445.210;3.000;0.100
445.581;3.000;0.100
445.951;3.000;0.100
446.322;3.000;0.100
446.692;3.000;0.100
447.063;3.000;0.100
447.433;3.000;0.100
447.804;3.000;0.100
448.174;3.000;0.100
448.545;3.000;0.100
448.915;3.000;0.100
449.285;3.000;0.100
449.655;3.000;0.100
450.026;3.000;0.100
450.396;3.000;0.100
450.766;3.000;0.100
451.136;3.000;0.100
451.506;3.000;0.100
451.876;3.000;0.100
452.246;3.000;0.100
452.616;3.000;0.100
452.985;3.000;0.100
453.355;3.000;0.100
453.725;3.000;0.100
454.095;3.000;0.100
454.464;3.000;0.100
454.834;3.000;0.100
455.204;3.000;0.100
455.573;3.000;0.100
455.943;3.000;0.100
456.312;3.000;0.100
456.681;3.000;0.100
457.051;3.000;0.100
457.420;3.000;0.100
457.789;3.000;0.100
458.159;3.000;0.100
458.528;3.000;0.100
458.897;3.000;0.100
459.266;3.000;0.100
459.635;3.000;0.100
460.004;1.807;1.559
460.373;1.324;4.742
460.742;1.306;4.937
461.111;1.520;3.018
461.480;1.875;1.335
461.849;3.000;0.100
462.217;3.000;0.100
462.586;3.000;0.100
462.955;2.390;0.407
463.323;1.554;2.792
463.692;1.714;1.933
464.060;1.739;1.823
464.429;1.351;4.459
464.797;1.331;4.662
465.166;1.554;2.792
465.534;2.830;0.148
465.903;3.000;0.100
466.271;3.000;0.100
466.639;3.000;0.100
467.007;3.000;0.100
467.375;3.000;0.100
467.744;2.830;0.148
468.112;3.000;0.100
468.480;3.000;0.100
468.848;1.563;2.733
469.216;1.554;2.792
469.583;1.446;3.577
469.951;1.549;2.822
470.319;3.000;0.100
470.687;3.000;0.100
471.055;3.000;0.100
471.422;3.000;0.100
471.790;3.000;0.100
472.157;3.000;0.100
472.525;3.000;0.100
472.892;1.982;1.043
473.260;1.460;3.464
473.627;1.563;2.733
473.995;1.627;2.362
474.362;1.243;5.717
474.729;1.083;8.251
475.097;0.933;11.674
475.464;0.936;11.579
475.831;0.989;10.255
476.198;1.206;6.225
476.565;1.258;5.523
476.932;1.232;5.857
477.299;1.162;6.884
477.666;1.113;7.707
478.033;1.056;8.800
478.400;1.058;8.746
478.767;1.099;7.965
479.133;1.150;7.083
479.500;0.960;10.968
479.867;0.889;12.909
480.233;0.891;12.848
480.600;0.884;13.054
480.966;0.926;11.870
481.333;0.928;11.806
481.699;0.912;12.233
482.066;0.983;10.402
482.432;0.858;13.860
482.798;0.816;15.267
483.165;0.868;13.540
483.531;0.812;15.425
483.897;0.814;15.363
484.263;0.827;14.907
484.629;0.856;13.927
484.996;0.864;13.674
485.362;0.845;14.279
485.727;0.771;16.941
486.093;0.766;17.150
486.459;0.771;16.954
486.825;0.736;18.355
487.191;0.672;21.295
487.557;0.681;20.857
487.922;0.715;19.254
488.288;0.595;25.389
488.654;0.599;25.204
489.019;0.576;26.554
489.385;0.566;27.178
489.750;0.544;28.558
490.116;0.499;31.663
490.481;0.551;28.146
490.846;0.541;28.794
491.212;0.548;28.326
491.577;0.531;29.477
491.942;0.493;32.157
492.307;0.560;27.541
492.673;0.567;27.111
493.038;0.520;30.220
493.403;0.465;34.310
493.768;0.512;30.769
494.133;0.452;35.337
494.498;0.441;36.183
494.862;0.474;33.572
495.227;0.491;32.259
495.592;0.475;33.520
495.957;0.428;37.301
496.322;0.430;37.171
496.686;0.419;38.088
497.051;0.425;37.605
497.415;0.460;34.689
497.780;0.441;36.256
498.144;0.456;34.957
498.509;0.443;36.048
498.873;0.426;37.483
499.238;0.450;35.510
499.602;0.459;34.735
499.966;0.456;34.993
500.330;0.455;35.070
500.694;0.433;36.873
501.059;0.454;35.167
501.423;0.400;39.769
501.787;0.417;38.295
502.151;0.396;40.190
502.515;0.407;39.149
502.879;0.413;38.670
503.242;0.405;39.357
503.606;0.389;40.791
503.970;0.435;36.749
504.334;0.397;40.103
504.697;0.448;35.606
505.061;0.409;39.025
505.425;0.408;39.056
505.788;0.406;39.305
506.152;0.393;40.438
506.515;0.365;43.167
506.878;0.368;42.829
507.242;0.364;43.241
507.605;0.360;43.697
507.968;0.356;44.034
508.332;0.387;41.023
508.695;0.382;41.494
509.058;0.374;42.244
509.421;0.375;42.187
509.784;0.364;43.269
510.147;0.389;40.820
510.510;0.352;44.445
510.873;0.356;44.105
511.236;0.389;40.877
511.599;0.359;43.758
511.962;0.357;43.984
512.324;0.319;48.025
512.687;0.357;43.977
513.050;0.338;45.949
513.412;0.344;45.318
513.775;0.344;45.318
514.137;0.408;39.076
514.500;0.381;41.573
514.862;0.330;46.744
515.225;0.341;45.640
515.587;0.321;47.799
515.949;0.317;48.145
516.312;0.321;47.773
516.674;0.336;46.083
517.036;0.350;44.644
517.398;0.324;47.458
517.760;0.347;44.972
518.122;0.347;44.972
518.484;0.324;47.445
518.846;0.318;48.064
519.208;0.349;44.756
519.570;0.367;42.942
519.932;0.308;49.199
520.293;0.338;45.880
520.655;0.301;50.000
521.017;0.314;48.580
521.379;0.307;49.370
521.740;0.316;48.291
522.102;0.317;48.215
522.463;0.312;48.774
522.825;0.313;48.594
523.186;0.312;48.744
523.547;0.301;50.000
523.909;0.357;43.962
524.270;0.301;50.000
524.631;0.302;49.879
524.992;0.309;49.042
525.353;0.311;48.824
525.715;0.308;49.171
526.076;0.293;50.963
526.437;0.304;49.651
526.798;0.306;49.408
527.159;0.322;47.654
527.519;0.322;47.648
527.880;0.315;48.398
528.241;0.333;46.448
528.602;0.290;51.343
528.962;0.312;48.749
529.323;0.322;47.610
529.684;0.328;46.984
530.044;0.298;50.323
530.405;0.294;50.779
530.765;0.314;48.485
531.126;0.309;49.145
531.486;0.267;54.063
531.846;0.262;54.663
532.207;0.280;52.494
532.567;0.266;54.204
532.927;0.298;50.316
533.287;0.280;52.512
533.647;0.285;51.892
534.007;0.290;51.321
534.367;0.267;54.120
534.727;0.285;51.832
535.087;0.278;52.732
535.447;0.305;49.517
535.807;0.286;51.748
536.167;0.266;54.187
536.526;0.312;48.744
536.886;0.314;48.502
537.246;0.254;55.744
537.605;0.339;45.772
537.965;0.304;49.610
538.324;0.285;51.866
538.684;0.278;52.750
539.043;0.281;52.389
539.403;0.276;52.973
539.762;0.320;47.847
540.121;0.292;50.996
540.481;0.292;51.024
540.840;0.296;50.554
541.199;0.312;48.757
541.558;0.291;51.198
541.917;0.285;51.849
542.276;0.293;50.907
542.635;0.287;51.679
542.994;0.271;53.567
543.353;0.275;53.105
543.712;0.237;57.944
544.071;0.292;50.992
544.429;0.276;53.009
544.788;0.252;56.033
545.147;0.259;55.056
545.505;0.253;55.819
545.864;0.289;51.378
546.222;0.274;53.262
546.581;0.294;50.836
546.939;0.276;53.020
547.298;0.264;54.419
547.656;0.291;51.148
548.014;0.266;54.213
548.373;0.293;50.990
548.731;0.243;57.210
549.089;0.247;56.659
549.447;0.252;55.981
549.805;0.278;52.684
550.163;0.244;56.992
550.521;0.258;55.215
550.879;0.221;60.164
551.237;0.243;57.106
551.595;0.251;56.116
551.953;0.246;56.710
552.310;0.240;57.495
552.668;0.257;55.282
553.026;0.245;56.933
553.383;0.240;57.521
553.741;0.234;58.317
554.098;0.258;55.167
554.456;0.236;58.132
554.813;0.210;61.708
555.171;0.238;57.798
555.528;0.233;58.491
555.885;0.232;58.583
556.242;0.238;57.832
556.600;0.209;61.797
556.957;0.230;58.901
557.314;0.214;61.111
557.671;0.238;57.808
558.028;0.219;60.397
558.385;0.215;60.989
558.742;0.234;58.373
559.099;0.202;62.875
559.456;0.226;59.400
559.812;0.183;65.681
560.169;0.215;61.007
560.526;0.201;62.935
560.883;0.185;65.385
561.239;0.214;61.127
561.596;0.205;62.431
561.952;0.215;61.013
562.309;0.190;64.500
562.665;0.224;59.712
563.021;0.191;64.446
563.378;0.192;64.234
563.734;0.218;60.546
564.090;0.195;63.761
564.447;0.215;60.962
564.803;0.218;60.495
565.159;0.182;65.814
565.515;0.208;61.885
565.871;0.211;61.542
566.227;0.196;63.706
566.583;0.199;63.271
566.939;0.200;63.115
567.294;0.202;62.854
567.650;0.194;63.956
568.006;0.180;66.144
568.362;0.215;60.990
568.717;0.235;58.237
569.073;0.220;60.233
569.428;0.192;64.283
569.784;0.200;63.108
570.139;0.214;61.160
570.495;0.201;63.003
570.850;0.194;63.985
571.205;0.201;62.896
571.561;0.224;59.703
571.916;0.213;61.276
572.271;0.196;63.625
572.626;0.204;62.523
572.981;0.225;59.537
573.336;0.231;58.752
573.691;0.215;61.017
574.046;0.221;60.059
574.401;0.190;64.639
574.756;0.235;58.257
575.111;0.222;60.016
575.466;0.236;58.141
575.820;0.219;60.443
576.175;0.242;57.285
576.530;0.239;57.655
576.884;0.227;59.332
577.239;0.231;58.715
577.593;0.237;57.991
577.948;0.250;56.194
578.302;0.209;61.871
578.656;0.237;57.916
579.011;0.231;58.745
579.365;0.249;56.405
579.719;0.242;57.307
580.073;0.235;58.244
580.428;0.246;56.788
580.782;0.265;54.284
581.136;0.222;59.929
581.490;0.234;58.312
581.844;0.254;55.781
582.197;0.241;57.461
582.551;0.254;55.682
582.905;0.256;55.445
583.259;0.253;55.805
583.613;0.253;55.904
583.966;0.206;62.173
584.320;0.229;58.989
584.673;0.243;57.119
585.027;0.219;60.337
585.380;0.239;57.626
585.734;0.223;59.818
586.087;0.221;60.119
586.440;0.268;53.904
586.794;0.264;54.440
587.147;0.239;57.619
587.500;0.246;56.757
587.853;0.231;58.692
588.206;0.272;53.433
588.559;0.270;53.750
588.913;0.270;53.652
589.265;0.257;55.372
589.618;0.250;56.289
589.971;0.262;54.748
590.324;0.239;57.623
590.677;0.231;58.752
591.030;0.246;56.788
591.382;0.195;63.844
591.735;0.246;56.795
592.087;0.253;55.881
592.440;0.199;63.281
592.792;0.240;57.509
593.145;0.238;57.770
593.497;0.240;57.541
593.850;0.226;59.477
594.202;0.275;53.081
594.554;0.234;58.384
594.906;0.204;62.522
595.259;0.248;56.533
595.611;0.247;56.656
595.963;0.221;60.049
596.315;0.233;58.495
596.667;0.192;64.291
597.019;0.231;58.784
597.371;0.195;63.842
597.723;0.213;61.218
598.074;0.199;63.178
598.426;0.218;60.571
598.778;0.205;62.377
599.129;0.215;60.940
599.481;0.219;60.334
599.833;0.177;66.535
600.184;0.189;64.738
600.536;0.180;66.018
600.887;0.184;65.458
601.238;0.195;63.805
601.590;0.207;62.019
601.941;0.181;65.927
602.292;0.187;65.081
602.643;0.158;69.445
602.994;0.196;63.628
603.346;0.174;67.060
603.697;0.194;63.961
604.048;0.186;65.092
604.399;0.168;67.854
604.749;0.184;65.519
605.100;0.207;62.131
605.451;0.140;72.484
605.802;0.172;67.269
606.153;0.154;70.145
606.503;0.176;66.713
606.854;0.156;69.749
607.204;0.182;65.771
607.555;0.168;67.969
607.905;0.143;71.942
608.256;0.159;69.294
608.606;0.144;71.715
608.957;0.145;71.636
609.307;0.136;73.066
609.657;0.118;76.165
610.007;0.151;70.671
610.358;0.136;73.189
610.708;0.137;73.017
611.058;0.107;78.204
611.408;0.124;75.245
611.758;0.140;72.367
612.108;0.134;73.435
612.457;0.129;74.248
612.807;0.127;74.714
613.157;0.139;72.643
613.507;0.132;73.816
613.856;0.121;75.612
614.206;0.140;72.442
614.556;0.122;75.577
614.905;0.127;74.590
615.255;0.123;75.314
615.604;0.082;82.875
615.954;0.138;72.728
616.303;0.125;74.941
616.652;0.100;79.448
617.001;0.130;74.200
617.351;0.106;78.328
617.700;0.123;75.253
618.049;0.127;74.602
618.398;0.116;76.647
618.747;0.125;75.047
619.096;0.102;79.058
619.445;0.109;77.811
619.794;0.126;74.862
620.143;0.127;74.592
620.491;0.115;76.800
620.840;0.109;77.850
621.189;0.108;77.957
621.537;0.120;75.811
621.886;0.109;77.731
622.235;0.105;78.528
622.583;0.117;76.409
622.932;0.097;79.895
623.280;0.105;78.611
623.628;0.111;77.388
623.977;0.114;76.910
624.325;0.106;78.350
624.673;0.084;82.500
625.021;0.117;76.402
625.369;0.106;78.266
625.717;0.107;78.168
626.065;0.124;75.179
626.413;0.094;80.477
626.761;0.095;80.276
627.109;0.099;79.681
627.457;0.120;75.811
627.805;0.101;79.226
628.153;0.102;78.992
628.500;0.103;78.828
628.848;0.115;76.663
629.196;0.097;80.026
629.543;0.100;79.429
629.891;0.113;77.139
630.238;0.100;79.522
630.585;0.077;83.789
630.933;0.097;80.001
631.280;0.079;83.331
631.627;0.112;77.229
631.975;0.094;80.607
632.322;0.101;79.213
632.669;0.125;74.961
633.016;0.106;78.331
633.363;0.106;78.412
633.710;0.107;78.145
634.057;0.106;78.285
634.404;0.105;78.598
634.751;0.111;77.424
635.097;0.094;80.563
635.444;0.100;79.420
635.791;0.098;79.719
636.137;0.112;77.336
636.484;0.113;77.174
636.831;0.103;78.864
637.177;0.089;81.417
637.524;0.090;81.335
637.870;0.099;79.684
638.216;0.120;75.894
638.563;0.113;77.133
638.909;0.091;81.020
639.255;0.099;79.590
639.601;0.089;81.462
639.947;0.119;76.020
640.293;0.092;80.900
640.639;0.119;75.956
640.985;0.081;83.054
641.331;0.097;79.947
641.677;0.101;79.284
642.023;0.103;78.809
642.369;0.097;80.057
642.715;0.106;78.331
643.060;0.094;80.492
643.406;0.108;78.026
643.751;0.093;80.731
644.097;0.104;78.795
644.442;0.102;79.021
644.788;0.110;77.538
645.133;0.091;81.188
645.479;0.100;79.487
645.824;0.107;78.117
646.169;0.101;79.220
646.514;0.092;80.947
646.860;0.083;82.697
647.205;0.088;81.660
647.550;0.113;77.015
647.895;0.105;78.442
648.240;0.102;79.099
648.585;0.085;82.305
648.930;0.100;79.462
649.274;0.118;76.212
649.619;0.096;80.241
649.964;0.093;80.719
650.309;0.116;76.564
650.653;0.089;81.542
650.998;0.105;78.522
651.342;0.102;79.094
651.687;0.110;77.552
652.031;0.088;81.649
652.376;0.101;79.300
652.720;0.094;80.447
653.064;0.096;80.123
653.408;0.090;81.260
653.753;0.084;82.363
654.097;0.111;77.400
654.441;0.090;81.338
654.785;0.094;80.525
655.129;0.096;80.258
655.473;0.102;79.123
655.817;0.102;79.146
656.161;0.084;82.414
656.504;0.073;84.609
656.848;0.091;81.050
657.192;0.074;84.351
657.536;0.091;81.152
657.879;0.101;79.301
658.223;0.109;77.731
658.566;0.061;86.925
658.910;0.094;80.606
659.253;0.098;79.800
659.597;0.093;80.799
659.940;0.081;82.989
660.283;0.105;78.476
660.626;0.094;80.492
660.970;0.086;82.087
661.313;0.097;80.059
661.656;0.093;80.727
661.999;0.080;83.114
662.342;0.090;81.236
662.685;0.095;80.359
663.028;0.079;83.418
663.370;0.101;79.271
663.713;0.088;81.700
664.056;0.091;81.145
664.399;0.091;81.051
664.741;0.091;81.178
665.084;0.085;82.147
665.426;0.080;83.110
665.769;0.094;80.590
666.111;0.087;81.777
666.454;0.102;79.013
666.796;0.087;81.817
667.138;0.090;81.375
667.481;0.098;79.806
667.823;0.089;81.511
668.165;0.090;81.243
668.507;0.091;81.162
668.849;0.079;83.308
669.191;0.078;83.655
669.533;0.078;83.488
669.875;0.084;82.407
670.217;0.088;81.708
670.559;0.086;82.116
670.901;0.071;84.977
671.242;0.085;82.192
671.584;0.098;79.732
671.926;0.093;80.697
672.267;0.090;81.293
672.609;0.090;81.340
672.950;0.092;80.854
673.292;0.086;81.964
673.633;0.079;83.332
673.974;0.079;83.367
674.316;0.099;79.541
674.657;0.087;81.846
674.998;0.098;79.801
675.339;0.085;82.219
675.680;0.087;81.759
676.021;0.098;79.857
676.362;0.084;82.429
676.703;0.071;84.828
677.044;0.087;81.793
677.385;0.081;83.008
677.726;0.088;81.603
678.067;0.084;82.359
678.407;0.074;84.355
678.748;0.069;85.306
679.088;0.069;85.394
679.429;0.088;81.614
679.770;0.092;80.887
680.110;0.091;81.108
680.450;0.085;82.150
680.791;0.086;81.979
681.131;0.062;86.750
681.471;0.088;81.713
681.811;0.083;82.669
682.152;0.096;80.116
682.492;0.086;82.070
682.832;0.084;82.469
683.172;0.079;83.347
683.512;0.086;81.973
683.852;0.087;81.900
684.192;0.081;83.048
684.531;0.093;80.691
684.871;0.070;85.057
685.211;0.082;82.729
685.551;0.088;81.678
685.890;0.082;82.797
686.230;0.081;82.963
